Typical Measured Spectrum of Semrock FF614-SDi01 Optical Filter	
For wavelengths between 320 and 1120 nm, values near or below 3e-7 (Optical Density 6.5) are measurement noise limited.
For wavelengths < 320 nm and > 1120 nm, values near or below 3e-6 (Optical Density 5.5) are measurement noise limited. 
Data format:  Wavelength (nm) <tab> Transmission (0 to 1)
235.0	0.1617
235.2	0.16657
235.4	0.17171
235.6	0.18712
235.8	0.20254
236.0	0.21796
236.2	0.23657
236.4	0.25715
236.6	0.27773
236.8	0.29812
237.0	0.31778
237.2	0.33745
237.4	0.35711
237.6	0.36854
237.8	0.37797
238.0	0.38739
238.2	0.39577
238.4	0.40258
238.6	0.40939
238.8	0.41619
239.0	0.43856
239.2	0.461
239.4	0.48345
239.6	0.51979
239.8	0.5658
240.0	0.6118
240.2	0.65124
240.4	0.66176
240.6	0.67228
240.8	0.68281
241.0	0.69428
241.2	0.70603
241.4	0.71778
241.6	0.72935
241.8	0.74063
242.0	0.75191
242.2	0.76319
242.4	0.77012
242.6	0.7769
242.8	0.78369
243.0	0.7875
243.2	0.789
243.4	0.79051
243.6	0.79235
243.8	0.79592
244.0	0.79948
244.2	0.80305
244.4	0.80453
244.6	0.80533
244.8	0.80613
245.0	0.80884
245.2	0.81503
245.4	0.82122
245.6	0.82741
245.8	0.83741
246.0	0.84762
246.2	0.85783
246.4	0.86417
246.6	0.86734
246.8	0.87052
247.0	0.87275
247.2	0.86942
247.4	0.86609
247.6	0.86276
247.8	0.86485
248.0	0.8688
248.2	0.87274
248.4	0.87526
248.6	0.87503
248.8	0.8748
249.0	0.87456
249.2	0.87185
249.4	0.86897
249.6	0.8661
249.8	0.86662
250.0	0.87008
250.2	0.87355
250.4	0.87659
250.6	0.87691
250.8	0.87724
251.0	0.87756
251.2	0.87844
251.4	0.87951
251.6	0.88059
251.8	0.88132
252.0	0.88136
252.2	0.8814
252.4	0.88144
252.6	0.88349
252.8	0.88568
253.0	0.88788
253.2	0.8931
253.4	0.90095
253.6	0.9088
253.8	0.91665
254.0	0.9245
254.2	0.92815
254.4	0.93179
254.6	0.92645
254.8	0.92027
255.0	0.91409
255.2	0.90997
255.4	0.90778
255.6	0.9056
255.8	0.90437
256.0	0.91054
256.2	0.9167
256.4	0.92287
256.6	0.92307
256.8	0.9209
257.0	0.91874
257.2	0.91653
257.4	0.91423
257.6	0.91193
257.8	0.90963
258.0	0.91283
258.2	0.91655
258.4	0.92027
258.6	0.91873
258.8	0.91225
259.0	0.90577
259.2	0.9004
259.4	0.90362
259.6	0.90684
259.8	0.91006
260.0	0.91327
260.2	0.90682
260.4	0.91155
260.6	0.92048
260.8	0.92177
261.0	0.92157
261.2	0.9182
261.4	0.91836
261.6	0.92067
261.8	0.92418
262.0	0.92556
262.2	0.91903
262.4	0.91624
262.6	0.91685
262.8	0.91671
263.0	0.91719
263.2	0.92313
263.4	0.92605
263.6	0.9249
263.8	0.92181
264.0	0.91806
264.2	0.91691
264.4	0.91629
264.6	0.91672
264.8	0.91715
265.0	0.91759
265.2	0.92608
265.4	0.9387
265.6	0.94222
265.8	0.93242
266.0	0.93324
266.2	0.95059
266.4	0.94204
266.6	0.9255
266.8	0.92151
267.0	0.93204
267.2	0.92144
267.4	0.9262
267.6	0.91624
267.8	0.9275
268.0	0.91591
268.2	0.91151
268.4	0.91157
268.6	0.92277
268.8	0.91137
269.0	0.91718
269.2	0.90896
269.4	0.92468
269.6	0.92268
269.8	0.91655
270.0	0.93387
270.2	0.9324
270.4	0.94041
270.6	0.92555
270.8	0.919
271.0	0.9318
271.2	0.92871
271.4	0.92154
271.6	0.92765
271.8	0.92635
272.0	0.92471
272.2	0.93405
272.4	0.91519
272.6	0.92624
272.8	0.93117
273.0	0.9381
273.2	0.93807
273.4	0.94473
273.6	0.94074
273.8	0.94501
274.0	0.94462
274.2	0.93805
274.4	0.94
274.6	0.94898
274.8	0.9311
275.0	0.94049
275.2	0.94868
275.4	0.94004
275.6	0.93401
275.8	0.94169
276.0	0.92926
276.2	0.93105
276.4	0.93245
276.6	0.93835
276.8	0.93441
277.0	0.94816
277.2	0.9448
277.4	0.9382
277.6	0.93837
277.8	0.93385
278.0	0.92776
278.2	0.93296
278.4	0.94176
278.6	0.93881
278.8	0.931
279.0	0.94791
279.2	0.93292
279.4	0.9305
279.6	0.93975
279.8	0.93632
280.0	0.94263
280.2	0.93698
280.4	0.92567
280.6	0.94001
280.8	0.93933
281.0	0.93862
281.2	0.92864
281.4	0.94287
281.6	0.91649
281.8	0.92974
282.0	0.93113
282.2	0.92838
282.4	0.93376
282.6	0.93428
282.8	0.93796
283.0	0.93291
283.2	0.92587
283.4	0.92701
283.6	0.91841
283.8	0.92815
284.0	0.93035
284.2	0.92464
284.4	0.92237
284.6	0.92992
284.8	0.93049
285.0	0.92331
285.2	0.9368
285.4	0.93545
285.6	0.925
285.8	0.94193
286.0	0.93628
286.2	0.93924
286.4	0.94145
286.6	0.93979
286.8	0.93315
287.0	0.94288
287.2	0.9399
287.4	0.93616
287.6	0.9461
287.8	0.93449
288.0	0.92882
288.2	0.93935
288.4	0.93244
288.6	0.9444
288.8	0.94294
289.0	0.93592
289.2	0.94834
289.4	0.94408
289.6	0.95516
289.8	0.94521
290.0	0.94923
290.2	0.94678
290.4	0.94524
290.6	0.95898
290.8	0.94566
291.0	0.95974
291.2	0.96705
291.4	0.96596
291.6	0.96632
291.8	0.96078
292.0	0.96727
292.2	0.96162
292.4	0.95624
292.6	0.9552
292.8	0.95237
293.0	0.9503
293.2	0.94176
293.4	0.94015
293.6	0.93193
293.8	0.93347
294.0	0.93338
294.2	0.93552
294.4	0.93743
294.6	0.93715
294.8	0.93558
295.0	0.93629
295.2	0.94276
295.4	0.94294
295.6	0.94077
295.8	0.93498
296.0	0.94058
296.2	0.93554
296.4	0.93954
296.6	0.93698
296.8	0.93249
297.0	0.93902
297.2	0.93353
297.4	0.93681
297.6	0.93431
297.8	0.93766
298.0	0.93903
298.2	0.93751
298.4	0.94742
298.6	0.94568
298.8	0.94478
299.0	0.9496
299.2	0.94635
299.4	0.95293
299.6	0.95149
299.8	0.94924
300.0	0.94969
300.2	0.9496
300.4	0.95993
300.6	0.94331
300.8	0.94557
301.0	0.94105
301.2	0.94096
301.4	0.94704
301.6	0.94101
301.8	0.94619
302.0	0.944
302.2	0.94849
302.4	0.94864
302.6	0.94682
302.8	0.94622
303.0	0.94857
303.2	0.95169
303.4	0.95695
303.6	0.95805
303.8	0.95628
304.0	0.94967
304.2	0.95621
304.4	0.95206
304.6	0.95515
304.8	0.95356
305.0	0.95775
305.2	0.95531
305.4	0.95496
305.6	0.95765
305.8	0.95763
306.0	0.9574
306.2	0.96148
306.4	0.96125
306.6	0.96692
306.8	0.96403
307.0	0.97034
307.2	0.96544
307.4	0.96499
307.6	0.96377
307.8	0.96841
308.0	0.96741
308.2	0.96741
308.4	0.96372
308.6	0.97136
308.8	0.96569
309.0	0.96196
309.2	0.96691
309.4	0.9649
309.6	0.96085
309.8	0.96533
310.0	0.96284
310.2	0.96777
310.4	0.96039
310.6	0.96405
310.8	0.96302
311.0	0.96209
311.2	0.95333
311.4	0.95849
311.6	0.95425
311.8	0.95607
312.0	0.94987
312.2	0.95302
312.4	0.94988
312.6	0.94572
312.8	0.9439
313.0	0.94669
313.2	0.94201
313.4	0.94168
313.6	0.94336
313.8	0.94578
314.0	0.94651
314.2	0.94572
314.4	0.94953
314.6	0.94656
314.8	0.9482
315.0	0.94742
315.2	0.9491
315.4	0.94982
315.6	0.94351
315.8	0.95039
316.0	0.9508
316.2	0.94693
316.4	0.95282
316.6	0.95258
316.8	0.95348
317.0	0.95021
317.2	0.94958
317.4	0.94489
317.6	0.95036
317.8	0.95512
318.0	0.95845
318.2	0.95792
318.4	0.95929
318.6	0.95629
318.8	0.96015
319.0	0.96758
319.2	0.96308
319.4	0.96995
319.6	0.96962
319.8	0.968
320.0	0.97075
320.2	0.97285
320.4	0.97049
320.6	0.97084
320.8	0.96791
321.0	0.96632
321.2	0.95985
321.4	0.96191
321.6	0.96265
321.8	0.95926
322.0	0.95704
322.2	0.95526
322.4	0.95727
322.6	0.95596
322.8	0.95365
323.0	0.95296
323.2	0.95395
323.4	0.96078
323.6	0.9567
323.8	0.95565
324.0	0.95894
324.2	0.96048
324.4	0.9571
324.6	0.96541
324.8	0.96136
325.0	0.96108
325.2	0.95907
325.4	0.95646
325.6	0.95959
325.8	0.95881
326.0	0.95308
326.2	0.95472
326.4	0.95728
326.6	0.95736
326.8	0.95764
327.0	0.95193
327.2	0.95732
327.4	0.95612
327.6	0.95866
327.8	0.95853
328.0	0.96071
328.2	0.9625
328.4	0.96458
328.6	0.96509
328.8	0.97006
329.0	0.96833
329.2	0.97251
329.4	0.97314
329.6	0.97317
329.8	0.97421
330.0	0.97561
330.2	0.97573
330.4	0.97547
330.6	0.97138
330.8	0.96947
331.0	0.96383
331.2	0.96729
331.4	0.96417
331.6	0.96466
331.8	0.95935
332.0	0.96077
332.2	0.96099
332.4	0.96049
332.6	0.95708
332.8	0.95862
333.0	0.95598
333.2	0.9591
333.4	0.95543
333.6	0.95646
333.8	0.95618
334.0	0.9567
334.2	0.95606
334.4	0.95275
334.6	0.96004
334.8	0.95452
335.0	0.95551
335.2	0.9549
335.4	0.95422
335.6	0.95143
335.8	0.95255
336.0	0.94944
336.2	0.95344
336.4	0.95169
336.6	0.94922
336.8	0.95062
337.0	0.95243
337.2	0.95104
337.4	0.95079
337.6	0.95411
337.8	0.95465
338.0	0.95575
338.2	0.95577
338.4	0.95612
338.6	0.95608
338.8	0.95746
339.0	0.95961
339.2	0.96289
339.4	0.964
339.6	0.96359
339.8	0.96219
340.0	0.96105
340.2	0.96279
340.4	0.96184
340.6	0.96284
340.8	0.96072
341.0	0.95813
341.2	0.96191
341.4	0.96011
341.6	0.95995
341.8	0.95864
342.0	0.96103
342.2	0.96123
342.4	0.95839
342.6	0.95996
342.8	0.96125
343.0	0.96542
343.2	0.96396
343.4	0.96485
343.6	0.96352
343.8	0.9667
344.0	0.97142
344.2	0.97206
344.4	0.97258
344.6	0.97392
344.8	0.97693
345.0	0.9765
345.2	0.9775
345.4	0.97618
345.6	0.97872
345.8	0.97656
346.0	0.97822
346.2	0.98068
346.4	0.9788
346.6	0.97794
346.8	0.97835
347.0	0.97908
347.2	0.97945
347.4	0.97672
347.6	0.97858
347.8	0.97755
348.0	0.97855
348.2	0.97678
348.4	0.97901
348.6	0.9772
348.8	0.9749
349.0	0.9763
349.2	0.9772
349.4	0.97906
349.6	0.97779
349.8	0.97871
350.0	0.97464
350.2	0.9751
350.4	0.97504
350.6	0.97438
350.8	0.97429
351.0	0.97397
351.2	0.97359
351.4	0.97269
351.6	0.9714
351.8	0.97127
352.0	0.97293
352.2	0.96991
352.4	0.96724
352.6	0.96874
352.8	0.96809
353.0	0.96609
353.2	0.96811
353.4	0.96481
353.6	0.96861
353.8	0.9659
354.0	0.96442
354.2	0.96859
354.4	0.96451
354.6	0.96798
354.8	0.96659
355.0	0.96953
355.2	0.96743
355.4	0.9685
355.6	0.96893
355.8	0.96778
356.0	0.96691
356.2	0.96704
356.4	0.96309
356.6	0.96323
356.8	0.96242
357.0	0.96529
357.2	0.96177
357.4	0.96365
357.6	0.96048
357.8	0.96166
358.0	0.96111
358.2	0.96133
358.4	0.95976
358.6	0.96154
358.8	0.95948
359.0	0.96071
359.2	0.96108
359.4	0.95972
359.6	0.96054
359.8	0.95971
360.0	0.9618
360.2	0.96319
360.4	0.9655
360.6	0.96594
360.8	0.96913
361.0	0.97004
361.2	0.97237
361.4	0.97486
361.6	0.97402
361.8	0.97678
362.0	0.97434
362.2	0.97339
362.4	0.97325
362.6	0.9745
362.8	0.97446
363.0	0.97059
363.2	0.97075
363.4	0.97172
363.6	0.97038
363.8	0.96263
364.0	0.96364
364.2	0.96469
364.4	0.96158
364.6	0.95864
364.8	0.95724
365.0	0.95815
365.2	0.96266
365.4	0.96118
365.6	0.96073
365.8	0.96163
366.0	0.96117
366.2	0.96389
366.4	0.96599
366.6	0.96634
366.8	0.96658
367.0	0.96731
367.2	0.97238
367.4	0.9707
367.6	0.97225
367.8	0.97294
368.0	0.97502
368.2	0.97442
368.4	0.9764
368.6	0.97441
368.8	0.97687
369.0	0.97673
369.2	0.97398
369.4	0.97565
369.6	0.97362
369.8	0.97592
370.0	0.97514
370.2	0.97362
370.4	0.97397
370.6	0.97149
370.8	0.97247
371.0	0.97254
371.2	0.97412
371.4	0.97245
371.6	0.97179
371.8	0.97514
372.0	0.97106
372.2	0.97316
372.4	0.97205
372.6	0.97582
372.8	0.97499
373.0	0.97383
373.2	0.97366
373.4	0.975
373.6	0.97759
373.8	0.9785
374.0	0.97908
374.2	0.97852
374.4	0.97778
374.6	0.97642
374.8	0.97716
375.0	0.97478
375.2	0.97794
375.4	0.97771
375.6	0.97305
375.8	0.97386
376.0	0.97305
376.2	0.97369
376.4	0.96967
376.6	0.96985
376.8	0.96985
377.0	0.9642
377.2	0.96559
377.4	0.96339
377.6	0.96311
377.8	0.96144
378.0	0.96097
378.2	0.96059
378.4	0.96069
378.6	0.95985
378.8	0.95982
379.0	0.96182
379.2	0.96157
379.4	0.96224
379.6	0.96048
379.8	0.96341
380.0	0.96079
380.2	0.96437
380.4	0.96304
380.6	0.96358
380.8	0.96472
381.0	0.96642
381.2	0.96882
381.4	0.96844
381.6	0.96848
381.8	0.96783
382.0	0.97033
382.2	0.97069
382.4	0.96962
382.6	0.96841
382.8	0.96868
383.0	0.96691
383.2	0.96558
383.4	0.96694
383.6	0.96424
383.8	0.96449
384.0	0.96368
384.2	0.96258
384.4	0.96422
384.6	0.96469
384.8	0.96324
385.0	0.9619
385.2	0.96335
385.4	0.96249
385.6	0.96325
385.8	0.9627
386.0	0.96689
386.2	0.96659
386.4	0.96814
386.6	0.9667
386.8	0.96777
387.0	0.96902
387.2	0.96909
387.4	0.9711
387.6	0.97269
387.8	0.97377
388.0	0.97448
388.2	0.972
388.4	0.97458
388.6	0.97718
388.8	0.97592
389.0	0.97624
389.2	0.97227
389.4	0.97324
389.6	0.97494
389.8	0.97345
390.0	0.97412
390.2	0.9698
390.4	0.96956
390.6	0.96801
390.8	0.96586
391.0	0.96769
391.2	0.96407
391.4	0.96556
391.6	0.96464
391.8	0.96193
392.0	0.96101
392.2	0.95765
392.4	0.95854
392.6	0.95612
392.8	0.95507
393.0	0.95474
393.2	0.95422
393.4	0.95316
393.6	0.95173
393.8	0.95226
394.0	0.95317
394.2	0.95461
394.4	0.95441
394.6	0.95544
394.8	0.95431
395.0	0.95513
395.2	0.95783
395.4	0.95502
395.6	0.95705
395.8	0.95998
396.0	0.95834
396.2	0.96137
396.4	0.96003
396.6	0.96084
396.8	0.96191
397.0	0.963
397.2	0.95985
397.4	0.95958
397.6	0.96216
397.8	0.96264
398.0	0.96312
398.2	0.96398
398.4	0.96311
398.6	0.96205
398.8	0.96151
399.0	0.96415
399.2	0.96181
399.4	0.96042
399.6	0.96425
399.8	0.96322
400.0	0.96244
400.2	0.96431
400.4	0.96667
400.6	0.96623
400.8	0.96576
401.0	0.96482
401.2	0.9667
401.4	0.96732
401.6	0.96693
401.8	0.96705
402.0	0.97032
402.2	0.96889
402.4	0.96945
402.6	0.97127
402.8	0.97272
403.0	0.97338
403.2	0.97363
403.4	0.97542
403.6	0.97782
403.8	0.97715
404.0	0.97738
404.2	0.97892
404.4	0.97776
404.6	0.97819
404.8	0.97575
405.0	0.97601
405.2	0.97804
405.4	0.97714
405.6	0.97675
405.8	0.97692
406.0	0.9736
406.2	0.97639
406.4	0.97386
406.6	0.97328
406.8	0.974
407.0	0.97318
407.2	0.97485
407.4	0.97165
407.6	0.97018
407.8	0.97336
408.0	0.97541
408.2	0.97422
408.4	0.97264
408.6	0.9719
408.8	0.97097
409.0	0.97292
409.2	0.97429
409.4	0.97174
409.6	0.97013
409.8	0.97122
410.0	0.97413
410.2	0.97342
410.4	0.97236
410.6	0.97236
410.8	0.97333
411.0	0.97159
411.2	0.97013
411.4	0.96942
411.6	0.97095
411.8	0.9707
412.0	0.96979
412.2	0.96883
412.4	0.96659
412.6	0.96327
412.8	0.96431
413.0	0.9642
413.2	0.96265
413.4	0.96011
413.6	0.96128
413.8	0.96084
414.0	0.961
414.2	0.96012
414.4	0.95986
414.6	0.95749
414.8	0.95769
415.0	0.9576
415.2	0.95676
415.4	0.95353
415.6	0.95332
415.8	0.95419
416.0	0.95121
416.2	0.95406
416.4	0.95466
416.6	0.95325
416.8	0.95544
417.0	0.95481
417.2	0.95302
417.4	0.95407
417.6	0.95417
417.8	0.95415
418.0	0.95427
418.2	0.95565
418.4	0.95704
418.6	0.95819
418.8	0.95739
419.0	0.96049
419.2	0.96012
419.4	0.96056
419.6	0.96029
419.8	0.96039
420.0	0.9599
420.2	0.96105
420.4	0.95896
420.6	0.95689
420.8	0.95814
421.0	0.95862
421.2	0.95785
421.4	0.95858
421.6	0.9591
421.8	0.95629
422.0	0.95791
422.2	0.95739
422.4	0.9569
422.6	0.95598
422.8	0.95507
423.0	0.95571
423.2	0.9549
423.4	0.95549
423.6	0.95457
423.8	0.95692
424.0	0.95464
424.2	0.95402
424.4	0.95473
424.6	0.95258
424.8	0.95398
425.0	0.95401
425.2	0.95418
425.4	0.9551
425.6	0.95634
425.8	0.95749
426.0	0.95704
426.2	0.95755
426.4	0.95767
426.6	0.96081
426.8	0.96041
427.0	0.95947
427.2	0.96043
427.4	0.9624
427.6	0.96464
427.8	0.96396
428.0	0.96423
428.2	0.9651
428.4	0.9647
428.6	0.96674
428.8	0.96773
429.0	0.96955
429.2	0.96622
429.4	0.96594
429.6	0.96672
429.8	0.96782
430.0	0.96719
430.2	0.96889
430.4	0.96727
430.6	0.9673
430.8	0.96531
431.0	0.96544
431.2	0.96445
431.4	0.96438
431.6	0.96448
431.8	0.96355
432.0	0.96244
432.2	0.9622
432.4	0.96151
432.6	0.96138
432.8	0.96029
433.0	0.96024
433.2	0.96163
433.4	0.96235
433.6	0.96238
433.8	0.9632
434.0	0.96322
434.2	0.96393
434.4	0.96339
434.6	0.96282
434.8	0.9611
435.0	0.96318
435.2	0.96509
435.4	0.96384
435.6	0.9658
435.8	0.96535
436.0	0.96581
436.2	0.96741
436.4	0.9677
436.6	0.96842
436.8	0.96948
437.0	0.96992
437.2	0.9726
437.4	0.97403
437.6	0.974
437.8	0.97347
438.0	0.9743
438.2	0.97595
438.4	0.97486
438.6	0.97382
438.8	0.973
439.0	0.97438
439.2	0.97415
439.4	0.97419
439.6	0.97431
439.8	0.97346
440.0	0.97564
440.2	0.97316
440.4	0.97363
440.6	0.97567
440.8	0.97451
441.0	0.97297
441.2	0.97372
441.4	0.97381
441.6	0.97306
441.8	0.97318
442.0	0.97256
442.2	0.97127
442.4	0.97151
442.6	0.97342
442.8	0.97202
443.0	0.97189
443.2	0.97235
443.4	0.97231
443.6	0.97249
443.8	0.97437
444.0	0.97515
444.2	0.97562
444.4	0.97436
444.6	0.9739
444.8	0.97476
445.0	0.97539
445.2	0.97741
445.4	0.97881
445.6	0.9786
445.8	0.97861
446.0	0.98007
446.2	0.97936
446.4	0.98056
446.6	0.98085
446.8	0.98139
447.0	0.98151
447.2	0.9814
447.4	0.98253
447.6	0.98099
447.8	0.98061
448.0	0.97949
448.2	0.97944
448.4	0.97862
448.6	0.97855
448.8	0.97916
449.0	0.98029
449.2	0.98151
449.4	0.97958
449.6	0.97779
449.8	0.97623
450.0	0.97527
450.2	0.97377
450.4	0.97357
450.6	0.97363
450.8	0.9705
451.0	0.96783
451.2	0.96845
451.4	0.96756
451.6	0.96853
451.8	0.96724
452.0	0.96451
452.2	0.96382
452.4	0.96353
452.6	0.96316
452.8	0.965
453.0	0.96356
453.2	0.96421
453.4	0.96434
453.6	0.96575
453.8	0.96568
454.0	0.96403
454.2	0.96253
454.4	0.96447
454.6	0.9643
454.8	0.9643
455.0	0.96479
455.2	0.96552
455.4	0.9648
455.6	0.96626
455.8	0.96631
456.0	0.96508
456.2	0.96566
456.4	0.967
456.6	0.96789
456.8	0.96878
457.0	0.96891
457.2	0.96947
457.4	0.97078
457.6	0.97107
457.8	0.9691
458.0	0.96824
458.2	0.96871
458.4	0.96871
458.6	0.96698
458.8	0.96365
459.0	0.96441
459.2	0.96455
459.4	0.96216
459.6	0.96144
459.8	0.96102
460.0	0.95956
460.2	0.95875
460.4	0.95702
460.6	0.95474
460.8	0.95306
461.0	0.9521
461.2	0.95221
461.4	0.95041
461.6	0.94987
461.8	0.94777
462.0	0.94854
462.2	0.94815
462.4	0.94531
462.6	0.94612
462.8	0.945
463.0	0.94532
463.2	0.94493
463.4	0.94189
463.6	0.94271
463.8	0.94229
464.0	0.94117
464.2	0.94153
464.4	0.94195
464.6	0.94241
464.8	0.94131
465.0	0.94135
465.2	0.94131
465.4	0.94233
465.6	0.94081
465.8	0.94171
466.0	0.94248
466.2	0.94422
466.4	0.94548
466.6	0.94551
466.8	0.94604
467.0	0.94735
467.2	0.94578
467.4	0.94565
467.6	0.94744
467.8	0.9479
468.0	0.94831
468.2	0.94867
468.4	0.95088
468.6	0.94962
468.8	0.94871
469.0	0.95003
469.2	0.949
469.4	0.94858
469.6	0.94986
469.8	0.94979
470.0	0.95015
470.2	0.9502
470.4	0.95183
470.6	0.95047
470.8	0.95086
471.0	0.94937
471.2	0.94886
471.4	0.94776
471.6	0.94624
471.8	0.94723
472.0	0.94748
472.2	0.94663
472.4	0.94661
472.6	0.94721
472.8	0.94532
473.0	0.94451
473.2	0.94533
473.4	0.94732
473.6	0.94642
473.8	0.94761
474.0	0.94757
474.2	0.94836
474.4	0.95046
474.6	0.95077
474.8	0.95089
475.0	0.95101
475.2	0.95093
475.4	0.95225
475.6	0.95234
475.8	0.9544
476.0	0.95419
476.2	0.95307
476.4	0.95412
476.6	0.95495
476.8	0.9564
477.0	0.9585
477.2	0.95875
477.4	0.95983
477.6	0.9601
477.8	0.96105
478.0	0.96305
478.2	0.96346
478.4	0.96358
478.6	0.96451
478.8	0.96674
479.0	0.96842
479.2	0.96659
479.4	0.96748
479.6	0.96772
479.8	0.97
480.0	0.97047
480.2	0.97127
480.4	0.97298
480.6	0.97361
480.8	0.97327
481.0	0.9744
481.2	0.97389
481.4	0.97282
481.6	0.97466
481.8	0.9744
482.0	0.97314
482.2	0.97267
482.4	0.97199
482.6	0.97303
482.8	0.97359
483.0	0.97333
483.2	0.97274
483.4	0.97479
483.6	0.97456
483.8	0.97483
484.0	0.97445
484.2	0.97279
484.4	0.9712
484.6	0.97031
484.8	0.96997
485.0	0.96986
485.2	0.97083
485.4	0.97109
485.6	0.9695
485.8	0.96941
486.0	0.96996
486.2	0.97063
486.4	0.97205
486.6	0.97118
486.8	0.97317
487.0	0.97274
487.2	0.97158
487.4	0.97181
487.6	0.97175
487.8	0.97278
488.0	0.97169
488.2	0.97293
488.4	0.97415
488.6	0.97356
488.8	0.97434
489.0	0.97424
489.2	0.97493
489.4	0.97717
489.6	0.97663
489.8	0.97676
490.0	0.97735
490.2	0.97608
490.4	0.97599
490.6	0.97485
490.8	0.97518
491.0	0.97587
491.2	0.97738
491.4	0.97578
491.6	0.97722
491.8	0.97778
492.0	0.97735
492.2	0.97693
492.4	0.97715
492.6	0.97807
492.8	0.97587
493.0	0.97538
493.2	0.97365
493.4	0.97375
493.6	0.97425
493.8	0.97491
494.0	0.97415
494.2	0.97431
494.4	0.97432
494.6	0.97197
494.8	0.97366
495.0	0.97363
495.2	0.97414
495.4	0.97143
495.6	0.9712
495.8	0.97066
496.0	0.97108
496.2	0.96995
496.4	0.96946
496.6	0.97013
496.8	0.96949
497.0	0.96889
497.2	0.96701
497.4	0.96624
497.6	0.96801
497.8	0.96817
498.0	0.96911
498.2	0.96806
498.4	0.96648
498.6	0.96837
498.8	0.9706
499.0	0.96983
499.2	0.9688
499.4	0.9682
499.6	0.96719
499.8	0.96847
500.0	0.96881
500.2	0.96981
500.4	0.96576
500.6	0.96612
500.8	0.96743
501.0	0.96796
501.2	0.96783
501.4	0.96738
501.6	0.96809
501.8	0.96789
502.0	0.9666
502.2	0.96785
502.4	0.96889
502.6	0.96832
502.8	0.96748
503.0	0.9675
503.2	0.96639
503.4	0.96839
503.6	0.96643
503.8	0.96506
504.0	0.96656
504.2	0.96698
504.4	0.96854
504.6	0.96812
504.8	0.96849
505.0	0.96732
505.2	0.96468
505.4	0.96548
505.6	0.96634
505.8	0.96663
506.0	0.96467
506.2	0.96355
506.4	0.9643
506.6	0.96534
506.8	0.96313
507.0	0.96206
507.2	0.96331
507.4	0.96342
507.6	0.96297
507.8	0.96166
508.0	0.96186
508.2	0.96314
508.4	0.96178
508.6	0.95919
508.8	0.95974
509.0	0.96094
509.2	0.96133
509.4	0.96082
509.6	0.96236
509.8	0.96251
510.0	0.96211
510.2	0.96433
510.4	0.96398
510.6	0.96239
510.8	0.96198
511.0	0.96422
511.2	0.96574
511.4	0.96509
511.6	0.9656
511.8	0.96563
512.0	0.96523
512.2	0.96521
512.4	0.96523
512.6	0.96639
512.8	0.96597
513.0	0.96643
513.2	0.96691
513.4	0.96928
513.6	0.96972
513.8	0.96903
514.0	0.96767
514.2	0.96598
514.4	0.96652
514.6	0.96536
514.8	0.96809
515.0	0.96817
515.2	0.96774
515.4	0.96723
515.6	0.96572
515.8	0.96675
516.0	0.96636
516.2	0.96677
516.4	0.96706
516.6	0.96838
516.8	0.96539
517.0	0.96336
517.2	0.96379
517.4	0.96457
517.6	0.96204
517.8	0.96219
518.0	0.96031
518.2	0.96222
518.4	0.96121
518.6	0.95985
518.8	0.95892
519.0	0.95775
519.2	0.95594
519.4	0.95402
519.6	0.95428
519.8	0.95463
520.0	0.954
520.2	0.95317
520.4	0.95299
520.6	0.95149
520.8	0.95049
521.0	0.9497
521.2	0.94786
521.4	0.94792
521.6	0.95027
521.8	0.94931
522.0	0.94719
522.2	0.94805
522.4	0.94694
522.6	0.94829
522.8	0.94969
523.0	0.94762
523.2	0.94724
523.4	0.94773
523.6	0.9466
523.8	0.94625
524.0	0.9471
524.2	0.94558
524.4	0.94584
524.6	0.94721
524.8	0.94757
525.0	0.94636
525.2	0.94888
525.4	0.95005
525.6	0.95292
525.8	0.95387
526.0	0.95242
526.2	0.95224
526.4	0.95283
526.6	0.954
526.8	0.95553
527.0	0.95627
527.2	0.95765
527.4	0.95875
527.6	0.95916
527.8	0.95901
528.0	0.96046
528.2	0.96255
528.4	0.9625
528.6	0.96333
528.8	0.964
529.0	0.96357
529.2	0.966
529.4	0.96516
529.6	0.96396
529.8	0.96566
530.0	0.96457
530.2	0.96408
530.4	0.96422
530.6	0.96503
530.8	0.96678
531.0	0.96872
531.2	0.96832
531.4	0.96931
531.6	0.96887
531.8	0.96674
532.0	0.96497
532.2	0.96295
532.4	0.96256
532.6	0.96175
532.8	0.96364
533.0	0.96485
533.2	0.96441
533.4	0.96417
533.6	0.96373
533.8	0.96318
534.0	0.96378
534.2	0.96475
534.4	0.96408
534.6	0.96396
534.8	0.96324
535.0	0.96326
535.2	0.96462
535.4	0.96468
535.6	0.96593
535.8	0.96594
536.0	0.96425
536.2	0.96679
536.4	0.96682
536.6	0.96597
536.8	0.96766
537.0	0.9681
537.2	0.96671
537.4	0.96925
537.6	0.97108
537.8	0.96934
538.0	0.97007
538.2	0.97059
538.4	0.97096
538.6	0.97226
538.8	0.97177
539.0	0.9722
539.2	0.9723
539.4	0.97283
539.6	0.97228
539.8	0.9732
540.0	0.97545
540.2	0.97862
540.4	0.97848
540.6	0.97712
540.8	0.97834
541.0	0.97933
541.2	0.98121
541.4	0.98249
541.6	0.98149
541.8	0.98013
542.0	0.98058
542.2	0.98366
542.4	0.98367
542.6	0.98406
542.8	0.98368
543.0	0.9843
543.2	0.9866
543.4	0.98511
543.6	0.98551
543.8	0.98555
544.0	0.98575
544.2	0.98435
544.4	0.9862
544.6	0.98589
544.8	0.98548
545.0	0.9832
545.2	0.98179
545.4	0.98218
545.6	0.98288
545.8	0.98216
546.0	0.98271
546.2	0.98352
546.4	0.98226
546.6	0.98018
546.8	0.97924
547.0	0.97848
547.2	0.97618
547.4	0.97598
547.6	0.97339
547.8	0.97416
548.0	0.97542
548.2	0.97444
548.4	0.97208
548.6	0.97015
548.8	0.97065
549.0	0.97143
549.2	0.97315
549.4	0.97188
549.6	0.97032
549.8	0.97079
550.0	0.96973
550.2	0.9685
550.4	0.96658
550.6	0.96524
550.8	0.96563
551.0	0.96673
551.2	0.96747
551.4	0.96732
551.6	0.96753
551.8	0.96566
552.0	0.96646
552.2	0.96585
552.4	0.96792
552.6	0.96882
552.8	0.96837
553.0	0.96691
553.2	0.96538
553.4	0.96512
553.6	0.96464
553.8	0.96656
554.0	0.96678
554.2	0.96597
554.4	0.96585
554.6	0.9676
554.8	0.9663
555.0	0.967
555.2	0.96758
555.4	0.96774
555.6	0.96779
555.8	0.96797
556.0	0.96853
556.2	0.96804
556.4	0.96899
556.6	0.96848
556.8	0.96825
557.0	0.96689
557.2	0.96691
557.4	0.96867
557.6	0.96986
557.8	0.97099
558.0	0.96631
558.2	0.9662
558.4	0.96702
558.6	0.96953
558.8	0.96829
559.0	0.96948
559.2	0.96714
559.4	0.96586
559.6	0.96538
559.8	0.96401
560.0	0.96273
560.2	0.96499
560.4	0.96418
560.6	0.96471
560.8	0.96332
561.0	0.96221
561.2	0.96302
561.4	0.96281
561.6	0.96172
561.8	0.96161
562.0	0.96038
562.2	0.96027
562.4	0.95975
562.6	0.96045
562.8	0.95883
563.0	0.95907
563.2	0.9598
563.4	0.9616
563.6	0.96144
563.8	0.96057
564.0	0.95969
564.2	0.95745
564.4	0.9579
564.6	0.95941
564.8	0.959
565.0	0.95933
565.2	0.95858
565.4	0.95834
565.6	0.95651
565.8	0.95797
566.0	0.95934
566.2	0.95935
566.4	0.95948
566.6	0.96158
566.8	0.96189
567.0	0.96502
567.2	0.96605
567.4	0.96453
567.6	0.96404
567.8	0.96376
568.0	0.96395
568.2	0.96427
568.4	0.96589
568.6	0.96641
568.8	0.96436
569.0	0.96367
569.2	0.96487
569.4	0.96493
569.6	0.96613
569.8	0.96541
570.0	0.96713
570.2	0.96554
570.4	0.96584
570.6	0.96698
570.8	0.96707
571.0	0.96787
571.2	0.96984
571.4	0.9706
571.6	0.97107
571.8	0.97189
572.0	0.97106
572.2	0.97074
572.4	0.9705
572.6	0.96873
572.8	0.96979
573.0	0.97052
573.2	0.96863
573.4	0.97003
573.6	0.96989
573.8	0.96977
574.0	0.96776
574.2	0.96718
574.4	0.96597
574.6	0.96558
574.8	0.968
575.0	0.96758
575.2	0.96607
575.4	0.96363
575.6	0.96237
575.8	0.96204
576.0	0.96251
576.2	0.96342
576.4	0.96422
576.6	0.96394
576.8	0.96219
577.0	0.96125
577.2	0.96138
577.4	0.96178
577.6	0.96124
577.8	0.963
578.0	0.96085
578.2	0.95912
578.4	0.95707
578.6	0.95618
578.8	0.95695
579.0	0.95752
579.2	0.95533
579.4	0.95579
579.6	0.95695
579.8	0.95567
580.0	0.95612
580.2	0.95776
580.4	0.95853
580.6	0.95942
580.8	0.96047
581.0	0.96118
581.2	0.96138
581.4	0.96167
581.6	0.96214
581.8	0.96128
582.0	0.96253
582.2	0.96163
582.4	0.96342
582.6	0.96292
582.8	0.96287
583.0	0.96502
583.2	0.96712
583.4	0.96735
583.6	0.96506
583.8	0.9661
584.0	0.96528
584.2	0.9652
584.4	0.96709
584.6	0.96923
584.8	0.96899
585.0	0.97193
585.2	0.97517
585.4	0.97522
585.6	0.97531
585.8	0.97484
586.0	0.974
586.2	0.9756
586.4	0.97658
586.6	0.97525
586.8	0.97424
587.0	0.97336
587.2	0.97278
587.4	0.97268
587.6	0.97305
587.8	0.97212
588.0	0.9718
588.2	0.97349
588.4	0.97085
588.6	0.96903
588.8	0.96908
589.0	0.96789
589.2	0.96605
589.4	0.96619
589.6	0.96695
589.8	0.96707
590.0	0.96698
590.2	0.96636
590.4	0.96694
590.6	0.96646
590.8	0.96328
591.0	0.96515
591.2	0.96644
591.4	0.96722
591.6	0.96604
591.8	0.96428
592.0	0.96398
592.2	0.96358
592.4	0.96589
592.6	0.96691
592.8	0.96241
593.0	0.96165
593.2	0.96188
593.4	0.96435
593.6	0.96676
593.8	0.96744
594.0	0.96838
594.2	0.96841
594.4	0.96826
594.6	0.969
594.8	0.97078
595.0	0.97168
595.2	0.97294
595.4	0.97405
595.6	0.97567
595.8	0.9778
596.0	0.97908
596.2	0.97829
596.4	0.97809
596.6	0.97901
596.8	0.98209
597.0	0.98152
597.2	0.9827
597.4	0.9827
597.6	0.98266
597.8	0.98357
598.0	0.98401
598.2	0.98366
598.4	0.98492
598.6	0.9858
598.8	0.98613
599.0	0.98619
599.2	0.98325
599.4	0.98037
599.6	0.98061
599.8	0.98051
600.0	0.98093
600.2	0.97754
600.4	0.97372
600.6	0.97196
600.8	0.9703
601.0	0.96865
601.2	0.96357
601.4	0.9606
601.6	0.95906
601.8	0.95881
602.0	0.95433
602.2	0.95212
602.4	0.9492
602.6	0.94552
602.8	0.94028
603.0	0.9359
603.2	0.93132
603.4	0.92645
603.6	0.92273
603.8	0.91834
604.0	0.91527
604.2	0.90933
604.4	0.90584
604.6	0.90539
604.8	0.9008
605.0	0.8982
605.2	0.89612
605.4	0.8935
605.6	0.8925
605.8	0.89144
606.0	0.89132
606.2	0.88983
606.4	0.88776
606.6	0.88841
606.8	0.88927
607.0	0.89029
607.2	0.89097
607.4	0.89405
607.6	0.89412
607.8	0.89222
608.0	0.89096
608.2	0.88953
608.4	0.88843
608.6	0.88878
608.8	0.88558
609.0	0.88294
609.2	0.8778
609.4	0.87431
609.6	0.86963
609.8	0.86344
610.0	0.85579
610.2	0.84686
610.4	0.83468
610.6	0.82389
610.8	0.81105
611.0	0.79569
611.2	0.78149
611.4	0.7682
611.6	0.75335
611.8	0.73636
612.0	0.71931
612.2	0.70358
612.4	0.68712
612.6	0.67169
612.8	0.6559
613.0	0.64123
613.2	0.62746
613.4	0.61378
613.6	0.60024
613.8	0.58634
614.0	0.57458
614.2	0.56383
614.4	0.55428
614.6	0.54501
614.8	0.53634
615.0	0.5289
615.2	0.52196
615.4	0.51418
615.6	0.50649
615.8	0.49917
616.0	0.49209
616.2	0.48499
616.4	0.47938
616.6	0.47282
616.8	0.46642
617.0	0.45906
617.2	0.45009
617.4	0.44109
617.6	0.43356
617.8	0.42493
618.0	0.41458
618.2	0.40289
618.4	0.39192
618.6	0.38077
618.8	0.36979
619.0	0.35791
619.2	0.34473
619.4	0.33167
619.6	0.31903
619.8	0.30621
620.0	0.29389
620.2	0.28028
620.4	0.26802
620.6	0.25546
620.8	0.24325
621.0	0.23121
621.2	0.22064
621.4	0.21012
621.6	0.19885
621.8	0.18868
622.0	0.17916
622.2	0.1701
622.4	0.16207
622.6	0.15378
622.8	0.14564
623.0	0.13746
623.2	0.12999
623.4	0.12364
623.6	0.11768
623.8	0.11143
624.0	0.10558
624.2	0.10013
624.4	0.09506
624.6	0.09039
624.8	0.08597
625.0	0.08177
625.2	0.07758
625.4	0.07377
625.6	0.07038
625.8	0.06707
626.0	0.06403
626.2	0.06107
626.4	0.05838
626.6	0.05592
626.8	0.05352
627.0	0.05136
627.2	0.04918
627.4	0.04713
627.6	0.04509
627.8	0.04347
628.0	0.04181
628.2	0.04029
628.4	0.03865
628.6	0.03716
628.8	0.03568
629.0	0.03438
629.2	0.03312
629.4	0.03194
629.6	0.03092
629.8	0.02979
630.0	0.02876
630.2	0.02785
630.4	0.02707
630.6	0.02616
630.8	0.0254
631.0	0.02468
631.2	0.02399
631.4	0.0232
631.6	0.02257
631.8	0.02189
632.0	0.02137
632.2	0.02087
632.4	0.02031
632.6	0.0198
632.8	0.01933
633.0	0.01879
633.2	0.0183
633.4	0.01787
633.6	0.01742
633.8	0.01702
634.0	0.01669
634.2	0.01636
634.4	0.016
634.6	0.01571
634.8	0.01536
635.0	0.01506
635.2	0.01483
635.4	0.01457
635.6	0.01426
635.8	0.01391
636.0	0.01372
636.2	0.01353
636.4	0.0133
636.6	0.01309
636.8	0.0129
637.0	0.01267
637.2	0.01251
637.4	0.01235
637.6	0.01219
637.8	0.01199
638.0	0.01184
638.2	0.01171
638.4	0.01158
638.6	0.01143
638.8	0.01135
639.0	0.01121
639.2	0.01103
639.4	0.01093
639.6	0.01084
639.8	0.0107
640.0	0.01066
640.2	0.01059
640.4	0.01049
640.6	0.0104
640.8	0.01033
641.0	0.01026
641.2	0.01015
641.4	0.01008
641.6	0.01002
641.8	0.01
642.0	0.00996
642.2	0.0099
642.4	0.00985
642.6	0.00979
642.8	0.0098
643.0	0.00978
643.2	0.00972
643.4	0.00968
643.6	0.00966
643.8	0.00966
644.0	0.0096
644.2	0.0096
644.4	0.0096
644.6	0.00959
644.8	0.00959
645.0	0.00953
645.2	0.00954
645.4	0.00957
645.6	0.00955
645.8	0.00957
646.0	0.00958
646.2	0.00961
646.4	0.00967
646.6	0.00971
646.8	0.00972
647.0	0.00973
647.2	0.00972
647.4	0.00978
647.6	0.00985
647.8	0.00983
648.0	0.00989
648.2	0.0099
648.4	0.00995
648.6	0.01
648.8	0.01006
649.0	0.01007
649.2	0.01012
649.4	0.01014
649.6	0.01019
649.8	0.01031
650.0	0.0104
650.2	0.01046
650.4	0.01052
650.6	0.01058
650.8	0.01064
651.0	0.01069
651.2	0.01076
651.4	0.01081
651.6	0.01095
651.8	0.011
652.0	0.01105
652.2	0.01113
652.4	0.01125
652.6	0.01128
652.8	0.01137
653.0	0.01147
653.2	0.0116
653.4	0.01169
653.6	0.01177
653.8	0.01184
654.0	0.01194
654.2	0.01202
654.4	0.01216
654.6	0.01225
654.8	0.01231
655.0	0.0124
655.2	0.01246
655.4	0.01255
655.6	0.01268
655.8	0.01276
656.0	0.01285
656.2	0.01293
656.4	0.01305
656.6	0.0131
656.8	0.01321
657.0	0.01328
657.2	0.01342
657.4	0.01341
657.6	0.01349
657.8	0.01354
658.0	0.01363
658.2	0.01365
658.4	0.01372
658.6	0.01377
658.8	0.01381
659.0	0.01389
659.2	0.01395
659.4	0.01398
659.6	0.01408
659.8	0.01413
660.0	0.01416
660.2	0.01419
660.4	0.01422
660.6	0.01416
660.8	0.0142
661.0	0.01422
661.2	0.0142
661.4	0.01422
661.6	0.01425
661.8	0.01429
662.0	0.01428
662.2	0.01423
662.4	0.01417
662.6	0.0142
662.8	0.0142
663.0	0.01419
663.2	0.01416
663.4	0.01411
663.6	0.01412
663.8	0.01407
664.0	0.01415
664.2	0.01408
664.4	0.01405
664.6	0.01407
664.8	0.01405
665.0	0.01403
665.2	0.01397
665.4	0.01391
665.6	0.01388
665.8	0.01388
666.0	0.01382
666.2	0.01382
666.4	0.01379
666.6	0.0137
666.8	0.01375
667.0	0.01366
667.2	0.01366
667.4	0.01366
667.6	0.01362
667.8	0.01356
668.0	0.01355
668.2	0.01349
668.4	0.01353
668.6	0.0135
668.8	0.01345
669.0	0.01341
669.2	0.01341
669.4	0.01344
669.6	0.01341
669.8	0.01335
670.0	0.01333
670.2	0.0133
670.4	0.01327
670.6	0.01333
670.8	0.01328
671.0	0.01328
671.2	0.01334
671.4	0.01332
671.6	0.01329
671.8	0.01322
672.0	0.01322
672.2	0.01326
672.4	0.01324
672.6	0.01326
672.8	0.01322
673.0	0.01302
673.2	0.01292
673.4	0.01291
673.6	0.01297
673.8	0.01298
674.0	0.01296
674.2	0.01298
674.4	0.01298
674.6	0.01291
674.8	0.01295
675.0	0.01296
675.2	0.01295
675.4	0.01301
675.6	0.01306
675.8	0.0131
676.0	0.0131
676.2	0.01311
676.4	0.01307
676.6	0.01314
676.8	0.01313
677.0	0.01315
677.2	0.01324
677.4	0.01324
677.6	0.01328
677.8	0.01339
678.0	0.01339
678.2	0.01338
678.4	0.01346
678.6	0.01348
678.8	0.01352
679.0	0.01354
679.2	0.01358
679.4	0.01361
679.6	0.01363
679.8	0.01364
680.0	0.01365
680.2	0.0137
680.4	0.01369
680.6	0.01371
680.8	0.01378
681.0	0.01376
681.2	0.01379
681.4	0.01388
681.6	0.01382
681.8	0.01381
682.0	0.01393
682.2	0.01385
682.4	0.01391
682.6	0.01398
682.8	0.01391
683.0	0.01387
683.2	0.01394
683.4	0.01392
683.6	0.0139
683.8	0.01393
684.0	0.014
684.2	0.01396
684.4	0.01392
684.6	0.0138
684.8	0.01386
685.0	0.01387
685.2	0.01387
685.4	0.01383
685.6	0.01372
685.8	0.01377
686.0	0.01377
686.2	0.01378
686.4	0.01375
686.6	0.01375
686.8	0.01366
687.0	0.0136
687.2	0.01353
687.4	0.0134
687.6	0.01336
687.8	0.01334
688.0	0.01329
688.2	0.01321
688.4	0.01319
688.6	0.01313
688.8	0.01307
689.0	0.01307
689.2	0.01301
689.4	0.01295
689.6	0.01299
689.8	0.0129
690.0	0.01287
690.2	0.01281
690.4	0.01281
690.6	0.0127
690.8	0.01266
691.0	0.01264
691.2	0.01254
691.4	0.01247
691.6	0.01243
691.8	0.01237
692.0	0.01234
692.2	0.0123
692.4	0.01223
692.6	0.01223
692.8	0.01222
693.0	0.01221
693.2	0.0122
693.4	0.01212
693.6	0.01209
693.8	0.01207
694.0	0.0121
694.2	0.01207
694.4	0.01207
694.6	0.01206
694.8	0.01204
695.0	0.012
695.2	0.01199
695.4	0.01203
695.6	0.01197
695.8	0.01195
696.0	0.01191
696.2	0.01192
696.4	0.01185
696.6	0.0119
696.8	0.01193
697.0	0.01197
697.2	0.01198
697.4	0.01197
697.6	0.01202
697.8	0.012
698.0	0.01204
698.2	0.01206
698.4	0.01209
698.6	0.01208
698.8	0.01219
699.0	0.01221
699.2	0.01229
699.4	0.0123
699.6	0.01238
699.8	0.01246
700.0	0.01254
700.2	0.01264
700.4	0.01269
700.6	0.01275
700.8	0.01285
701.0	0.01297
701.2	0.01306
701.4	0.01317
701.6	0.01318
701.8	0.01333
702.0	0.01336
702.2	0.01353
702.4	0.0137
702.6	0.01386
702.8	0.014
703.0	0.0142
703.2	0.01435
703.4	0.01452
703.6	0.01474
703.8	0.01494
704.0	0.01514
704.2	0.01535
704.4	0.01551
704.6	0.01569
704.8	0.01584
705.0	0.01609
705.2	0.01635
705.4	0.01661
705.6	0.01687
705.8	0.01716
706.0	0.01738
706.2	0.01766
706.4	0.01801
706.6	0.0183
706.8	0.01865
707.0	0.01913
707.2	0.01953
707.4	0.01993
707.6	0.02033
707.8	0.0208
708.0	0.02129
708.2	0.02172
708.4	0.0222
708.6	0.02289
708.8	0.02342
709.0	0.02401
709.2	0.02458
709.4	0.02528
709.6	0.02602
709.8	0.0268
710.0	0.02755